Wavelength;%TR #1
162.83;0
163.22;0
163.62;0
164.01;0
164.41;0
164.81;0
165.2;0
165.6;0
165.99;0
166.39;0
166.79;0
167.18;0
167.58;0
167.97;0
168.37;0
168.77;0
169.16;0
169.56;237.5
169.95;0
170.35;0
170.75;0
171.14;0
171.54;0
171.93;0
172.33;0
172.72;266.6667
173.12;0
173.52;0
173.91;0
174.31;0
174.7;0
175.1;119.5876
175.5;27.1186
175.89;0
176.29;0
176.68;18.6047
177.08;0
177.48;0
177.87;59.6774
178.27;56.1644
178.66;31.0078
179.06;33.9623
179.45;20.9091
179.85;29.0698
180.25;86.3158
180.64;54.3689
181.04;16.3121
181.43;32.4074
181.83;21.8978
182.22;0
182.62;70.3704
183.02;21.1538
183.41;97.0149
183.81;21.2291
184.2;97
184.6;125.9615
184.99;86.8132
185.39;15.7233
185.79;34.4444
186.18;54.7945
186.58;0
186.97;0
187.37;0
187.76;47.0588
188.16;0
188.56;90.3846
188.95;83.3333
189.35;6.6116
189.74;62.8205
190.14;61.1111
190.53;0
190.93;38.1443
191.32;38.3838
191.72;34.6154
192.12;0
192.51;17.0543
192.91;41.6667
193.3;67.7419
193.7;20.3125
194.09;0
194.49;110
194.88;45.8333
195.28;76.7296
195.68;52.1739
196.07;0
196.47;73.8318
196.86;0
197.26;0
197.65;0
198.05;167.5676
198.44;45.8333
198.84;76.9231
199.23;86.6667
199.63;6.1404
200.02;0
200.42;0
200.82;16.129
201.21;0
201.61;50.6494
202;2.1505
202.4;39.1667
202.79;14.1732
203.19;0
203.58;0
203.98;0
204.37;103.5714
204.77;13.3333
205.16;54.6392
205.56;0
205.95;50.4348
206.35;50
206.75;0
207.14;24.1071
207.54;0
207.93;12.4031
208.33;26
208.72;10.9756
209.12;27.9279
209.51;0
209.91;94.0299
210.3;47.561
210.7;44.4444
211.09;0
211.49;30.5263
211.88;0
212.28;0
212.67;36.1111
213.07;0
213.46;6.6667
213.86;15
214.25;200
214.65;24.0741
215.04;8.9744
215.44;35.1064
215.83;0
216.23;0
216.62;0
217.02;35.7143
217.41;67.0588
217.81;27.8481
218.2;11.3636
218.6;64.4068
218.99;39.8438
219.39;44.2623
219.78;2.8571
220.18;38.7755
220.57;70
220.97;7.5269
221.36;0
221.76;0
222.15;0
222.55;25.9036
222.94;0
223.34;42.268
223.73;79.5455
224.13;50.3876
224.52;0
224.92;4.4776
225.31;47.8261
225.71;0
226.1;0
226.49;43.3333
226.89;48.6486
227.28;2.3121
227.68;0
228.07;8.3333
228.47;35.9375
228.86;0
229.26;0
229.65;2.2059
230.05;0
230.44;0
230.84;8.046
231.23;0
231.63;71.5596
232.02;44.4444
232.41;4.3103
232.81;0
233.2;0
233.6;0
233.99;33.8164
234.39;0
234.78;150
235.18;0
235.57;0
235.97;0
236.36;46.7391
236.75;14.2857
237.15;10
237.54;0
237.94;25.5102
238.33;0
238.73;37.5
239.12;0
239.52;0
239.91;0
240.3;0
240.7;7.6087
241.09;0
241.49;0
241.88;0
242.28;0
242.67;0
243.06;0
243.46;68.9655
243.85;0
244.25;0
244.64;0
245.04;37.1429
245.43;59.6491
245.82;22.7273
246.22;0
246.61;0
247.01;0
247.4;0
247.79;13.8211
248.19;0
248.58;0
248.98;42.2222
249.37;0
249.77;0.9091
250.16;0
250.55;13.1783
250.95;24.6479
251.34;28.8
251.74;11.0294
252.13;0
252.52;0
252.92;30.8411
253.31;0
253.71;0
254.1;0
254.49;0
254.89;0
255.28;4.0816
255.68;0
256.07;17.7215
256.46;13.2353
256.86;0
257.25;0
257.64;0
258.04;9.6154
258.43;20
258.83;13.9073
259.22;3.7975
259.61;18.1818
260.01;32.3529
260.4;0
260.79;19.6262
261.19;29.0909
261.58;30.7692
261.98;35.5556
262.37;0
262.76;34.1935
263.16;3.6364
263.55;15.2174
263.94;3.0864
264.34;0
264.73;0
265.12;4.5113
265.52;0
265.91;36.4486
266.31;4.0698
266.7;0
267.09;53.3333
267.49;17.8862
267.88;0
268.27;0
268.67;0
269.06;0
269.45;19.8718
269.85;57.8431
270.24;0
270.63;7.9755
271.03;48.8636
271.42;17.6991
271.81;0
272.21;0
272.6;0
272.99;14.0187
273.39;7.9646
273.78;0
274.17;0
274.57;0
274.96;37.5546
275.35;0
275.75;0
276.14;7.6087
276.53;65.4135
276.93;31.3433
277.32;0
277.71;14.9701
278.11;46.4286
278.5;0
278.89;0
279.28;2.9126
279.68;21.0191
280.07;16.8
280.46;0
280.86;0
281.25;0
281.64;30.0813
282.04;38.1503
282.43;3.1915
282.82;0
283.21;0
283.61;1.4388
284;0
284.39;6.993
284.79;11.2069
285.18;22.807
285.57;0
285.96;0
286.36;21.5827
286.75;0
287.14;4
287.54;60
287.93;0
288.32;8.1967
288.71;3.9683
289.11;0
289.5;0
289.89;23.871
290.28;0
290.68;0
291.07;0
291.46;0
291.86;0
292.25;0
292.64;19.3333
293.03;0
293.43;0
293.82;0
294.21;7.6271
294.6;11.8343
295;0
295.39;0.9709
295.78;0
296.17;0
296.57;35.2381
296.96;0
297.35;0
297.74;7.3298
298.14;26.3158
298.53;0
298.92;2.1429
299.31;19.2857
299.7;12.5
300.1;0
300.49;2.069
300.88;0
301.27;14.6341
301.67;0
302.06;36.5
302.45;0
302.84;0
303.23;0
303.63;29.0598
304.02;13.9344
304.41;0
304.8;0
305.19;0
305.59;3.3784
305.98;27.1429
306.37;0
306.76;14.8936
307.15;25.4902
307.55;27.2727
307.94;0
308.33;0
308.72;0
309.11;9.375
309.51;85.9649
309.9;26.5823
310.29;0
310.68;31.6176
311.07;0
311.47;0
311.86;10.5691
312.25;0
312.64;0
313.03;56.8627
313.42;45.5696
313.82;0
314.21;0
314.6;5.7143
314.99;0
315.38;20
315.77;6.25
316.17;0
316.56;0
316.95;0
317.34;0
317.73;0
318.12;14.1509
318.51;0
318.91;0
319.3;0
319.69;16.5
320.08;1.7341
320.47;0
320.86;40
321.25;18.2927
321.65;81.1765
322.04;12.6126
322.43;0
322.82;0
323.21;16.6667
323.6;2.4691
323.99;0
324.39;21.5596
324.78;0
325.17;21.9512
325.56;3.4483
325.95;16.25
326.34;0
326.73;0
327.12;0
327.51;15.9091
327.91;0
328.3;0
328.69;26.3889
329.08;0
329.47;0
329.86;30.9859
330.25;3.2432
330.64;0
331.03;0
331.42;10.2041
331.82;0
332.21;0
332.6;0
332.99;0
333.38;9.9174
333.77;0
334.16;0
334.55;1.6129
334.94;42.2857
335.33;0
335.72;0
336.11;24.0876
336.5;0
336.89;3.7037
337.29;0
337.68;0
338.07;0
338.46;0
338.85;3.252
339.24;0
339.63;0.6061
340.02;0
340.41;30.7229
340.8;0
341.19;0
341.58;0
341.97;25.8278
342.36;49.2188
342.75;4.1322
343.14;0
343.53;0
343.92;0
344.31;0
344.7;0
345.09;0
345.48;10.5263
345.87;0
346.26;13.6364
346.65;21.2598
347.04;0
347.43;9.3525
347.83;0
348.22;0
348.61;0
349;0
349.39;28.0612
349.78;0
350.17;11.9469
350.56;5.4945
350.95;6.7114
351.34;0
351.73;0
352.11;0
352.5;11.6022
352.89;3.268
353.28;0
353.67;3.4682
354.06;4.5161
354.45;0
354.84;9.4787
355.23;90.0386
355.62;14.3426
356.01;1.3072
356.4;0
356.79;0
357.18;0
357.57;0
357.96;0
358.35;0
358.74;0
359.13;30.131
359.52;7.6
359.91;25.3247
360.3;21.1111
360.69;0
361.08;0
361.47;4.7368
361.86;0
362.24;0
362.63;0
363.02;5.2239
363.41;8.7179
363.8;0
364.19;17.9487
364.58;1.9608
364.97;5.5556
365.36;8.0645
365.75;21.1321
366.14;18.3206
366.53;0
366.92;5.9361
367.3;0
367.69;10
368.08;2.1661
368.47;20.1238
368.86;3.9088
369.25;0
369.64;18.9504
370.03;7.9038
370.42;8.971
370.81;14.7309
371.19;0
371.58;0
371.97;0
372.36;0
372.75;0
373.14;7.5209
373.53;0
373.92;4.878
374.3;0
374.69;0
375.08;0
375.47;3.6613
375.86;0.6012
376.25;0.4329
376.64;1.3216
377.02;3.9535
377.41;0
377.8;0
378.19;1.6863
378.58;0
378.97;0
379.36;1.8553
379.74;5.1635
380.13;3.4109
380.52;5.6515
380.91;2.1207
381.3;0
381.69;6.7771
382.07;4.742
382.46;4.9787
382.85;5.9663
383.24;6.1358
383.63;0.9211
384.01;0
384.4;6.9083
384.79;0.9901
385.18;0.1212
385.57;1.9975
385.96;8.9744
386.34;6.0021
386.73;7.8652
387.12;0
387.51;6.4249
387.9;3.6036
388.28;0.2893
388.67;17.2684
389.06;0.2762
389.45;0.7923
389.83;5.7541
390.22;2.1719
390.61;3.4361
391;2.1151
391.39;4.3867
391.77;3.8741
392.16;1.405
392.55;8.8587
392.94;2.7509
393.32;1.3514
393.71;9.2407
394.1;1.9476
394.49;4.698
394.87;1.5509
395.26;2.1927
395.65;6.7145
396.04;3.6472
396.42;2.8796
396.81;9.2308
397.2;6.5534
397.59;2.2699
397.97;4.8329
398.36;10.2933
398.75;6.4426
399.14;3.3576
399.52;3.9956
399.91;5.6482
400.3;6.4182
400.68;10.286
401.07;0.7092
401.46;5.2008
401.85;4.1605
402.23;8.1553
402.62;6.4653
403.01;3.4361
403.39;4.4954
403.78;6.1407
404.17;1.6034
404.55;5.4629
404.94;6.119
405.33;7.2547
405.71;4.4237
406.1;5.9806
406.49;4.717
406.88;4.7295
407.26;7.1746
407.65;3.9516
408.04;4.903
408.42;5.141
408.81;6.0312
409.2;4.191
409.58;6.7265
409.97;6.1634
410.36;4.6614
410.74;6.8862
411.13;4.947
411.51;4.0051
411.9;6.3019
412.29;6.0674
412.67;7.0689
413.06;6.4107
413.45;5.849
413.83;6.2229
414.22;6.1502
414.61;6.148
414.99;5.3439
415.38;5.1892
415.76;5.6535
416.15;6.6218
416.54;5.0195
416.92;7.3681
417.31;6.7234
417.7;5.3981
418.08;5.8653
418.47;6.1445
418.85;5.9098
419.24;6.2095
419.63;5.565
420.01;5.2764
420.4;6.4469
420.78;6.9054
421.17;6.3398
421.55;7.6631
421.94;6.5941
422.33;7.0993
422.71;5.1682
423.1;5.7514
423.48;6.6537
423.87;6.1945
424.25;6.9311
424.64;5.4684
425.03;6.5343
425.41;6.0409
425.8;5.6534
426.18;7.1986
426.57;6.6181
426.95;6.8483
427.34;6.5053
427.72;6.8315
428.11;6.7333
428.5;5.7679
428.88;5.0288
429.27;5.6408
429.65;6.5923
430.04;5.5744
430.42;5.8527
430.81;5.7449
431.19;6.1028
431.58;7.0709
431.96;7.2606
432.35;7.0516
432.73;5.4058
433.12;6.6555
433.5;5.9325
433.89;6.4926
434.27;6.7797
434.66;6.6295
435.04;5.2554
435.43;4.8213
435.81;6.6232
436.2;5.8857
436.58;6.2455
436.97;5.8508
437.35;5.4736
437.74;5.8146
438.12;6.4761
438.51;5.9908
438.89;5.7384
439.28;5.4104
439.66;6.4529
440.05;7.1344
440.43;5.7615
440.81;5.6695
441.2;6.1975
441.58;6.2627
441.97;6.7013
442.35;6.1278
442.74;5.7515
443.12;6.26
443.51;5.8368
443.89;6.2605
444.27;6.3744
444.66;6.6933
445.04;5.581
445.43;6.463
445.81;6.4139
446.2;6.6591
446.58;6.6262
446.96;5.8621
447.35;6.8386
447.73;6.8928
448.12;6.2692
448.5;6.157
448.88;6.0677
449.27;6.1314
449.65;5.9624
450.04;6.3156
450.42;6.064
450.8;6.7149
451.19;6.2179
451.57;6.6713
451.95;6.59
452.34;7.0002
452.72;6.3425
453.11;6.0917
453.49;7.0462
453.87;6.6798
454.26;6.5505
454.64;6.3816
455.02;6.64
455.41;6.1784
455.79;6.2063
456.17;6.3243
456.56;6.1827
456.94;6.5354
457.32;6.4732
457.71;5.8405
458.09;6.6815
458.47;6.3164
458.86;6.696
459.24;6.3026
459.62;6.8794
460.01;6.3129
460.39;6.501
460.77;6.4898
461.16;6.4183
461.54;7.1996
461.92;6.4765
462.31;6.2845
462.69;6.2314
463.07;6.2678
463.45;6.4136
463.84;6.3743
464.22;5.9612
464.6;6.2683
464.99;6.7273
465.37;6.6667
465.75;6.1781
466.13;6.1926
466.52;6.5162
466.9;6.8442
467.28;6.5134
467.66;6.2151
468.05;6.7951
468.43;6.4969
468.81;6.6018
469.19;6.3663
469.58;5.8765
469.96;6.308
470.34;6.465
470.72;6.6363
471.11;6.8571
471.49;6.2854
471.87;6.494
472.25;6.2962
472.64;6.7195
473.02;6.3252
473.4;6.1759
473.78;6.3772
474.16;6.174
474.55;6.7123
474.93;6.315
475.31;6.6061
475.69;6.5109
476.07;6.3941
476.46;6.8172
476.84;6.6145
477.22;6.2397
477.6;6.2326
477.98;6.3485
478.37;6.353
478.75;6.4729
479.13;6.4093
479.51;6.244
479.89;6.4384
480.27;6.3314
480.66;6.4853
481.04;6.5314
481.42;6.4831
481.8;6.3865
482.18;6.4594
482.56;6.6727
482.94;6.3769
483.33;6.4596
483.71;6.3326
484.09;6.445
484.47;6.481
484.85;6.2326
485.23;6.1847
485.61;6.3799
485.99;6.5127
486.38;6.3804
486.76;6.2761
487.14;6.3139
487.52;6.4701
487.9;6.558
488.28;6.4085
488.66;6.3463
489.04;6.2348
489.42;6.3692
489.81;6.2688
490.19;6.3798
490.57;6.4998
490.95;6.4078
491.33;6.4239
491.71;6.7653
492.09;6.5943
492.47;6.6371
492.85;6.4073
493.23;6.5712
493.61;6.5829
493.99;6.4629
494.37;6.6433
494.75;6.5795
495.13;6.4536
495.51;6.652
495.9;6.8191
496.28;6.9248
496.66;6.5021
497.04;6.5046
497.42;7.1421
497.8;6.5824
498.18;6.6726
498.56;6.7811
498.94;6.7752
499.32;6.557
499.7;6.9042
500.08;6.6836
500.46;6.7918
500.84;6.932
501.22;6.7363
501.6;6.7242
501.98;6.8488
502.36;6.9551
502.74;6.7728
503.12;6.7805
503.5;6.9601
503.88;7.0391
504.26;7.1887
504.64;7.1446
505.02;7.0675
505.39;7.2728
505.77;7.4011
506.15;7.3436
506.53;7.162
506.91;7.3968
507.29;7.5648
507.67;7.4827
508.05;7.3964
508.43;7.6048
508.81;7.6546
509.19;7.7246
509.57;7.824
509.95;7.8761
510.33;7.8132
510.71;7.9359
511.09;7.9724
511.46;8.2268
511.84;8.3342
512.22;9.3409
512.6;8.5008
512.98;8.5872
513.36;8.5888
513.74;8.8792
514.12;9.1983
514.5;9.0089
514.87;9.1322
515.25;9.2901
515.63;9.362
516.01;9.4474
516.39;9.679
516.77;9.4562
517.15;9.8016
517.53;10.0895
517.9;10.2537
518.28;10.278
518.66;10.3583
519.04;10.4731
519.42;10.6464
519.8;10.9004
520.17;11.1981
520.55;11.1466
520.93;11.3158
521.31;11.4977
521.69;12.0125
522.07;11.8136
522.44;12.1614
522.82;12.2649
523.2;12.4841
523.58;12.6346
523.96;12.9266
524.33;12.9039
524.71;13.083
525.09;13.4386
525.47;13.384
525.85;13.5684
526.22;13.9865
526.6;14.0204
526.98;14.2801
527.36;14.5771
527.73;14.7461
528.11;14.6912
528.49;14.8328
528.87;14.9934
529.25;15.0109
529.62;15.3233
530;15.4718
530.38;15.4252
530.75;15.8683
531.13;15.7049
531.51;15.9572
531.89;16.143
532.26;16.2758
532.64;16.4476
533.02;16.5128
533.4;16.5781
533.77;16.7851
534.15;16.8883
534.53;16.964
534.9;16.8065
535.28;16.9781
535.66;17.1929
536.04;17.2306
536.41;17.4832
536.79;17.0324
537.17;17.3412
537.54;17.4796
537.92;17.4505
538.3;17.8591
538.67;17.5972
539.05;17.8021
539.43;17.6115
539.8;17.9157
540.18;17.8423
540.56;17.9921
540.93;18.0811
541.31;18.0162
541.69;17.9903
542.06;17.8446
542.44;18.3166
542.81;18.0829
543.19;18.3859
543.57;18.4544
543.94;18.2721
544.32;18.2379
544.7;18.5004
545.07;18.4905
545.45;18.6052
545.82;18.5191
546.2;18.6524
546.58;18.4985
546.95;18.3922
547.33;18.4536
547.7;18.6967
548.08;18.5532
548.46;18.4982
548.83;18.7558
549.21;18.7537
549.58;18.7322
549.96;18.8032
550.33;18.865
550.71;18.8975
551.08;18.8445
551.46;18.8415
551.84;18.8985
552.21;18.9083
552.59;19.026
552.96;18.9265
553.34;18.9121
553.71;18.8258
554.09;19.1854
554.46;19.0113
554.84;18.8864
555.21;18.7292
555.59;18.9021
555.96;19.0011
556.34;18.8682
556.71;18.5741
557.09;18.9221
557.46;18.9425
557.84;18.635
558.21;18.5568
558.59;18.6624
558.96;18.7553
559.34;18.7446
559.71;18.6195
560.09;18.4675
560.46;18.4419
560.84;18.3913
561.21;18.2985
561.59;18.2211
561.96;18.1956
562.33;18.2952
562.71;18.1738
563.08;17.961
563.46;17.834
563.83;17.8237
564.21;17.8794
564.58;17.8017
564.96;17.9436
565.33;17.5185
565.7;17.5139
566.08;17.0081
566.45;17.1628
566.83;16.995
567.2;16.9013
567.57;16.7627
567.95;16.6892
568.32;16.6312
568.7;16.4008
569.07;16.4244
569.44;16.3136
569.82;15.9063
570.19;16.0411
570.56;15.5209
570.94;15.8218
571.31;15.5767
571.69;15.485
572.06;15.1581
572.43;15.1651
572.81;15.1929
573.18;15.0346
573.55;14.9018
573.93;14.9528
574.3;14.7141
574.67;14.7323
575.05;14.4336
575.42;14.4629
575.79;14.1886
576.17;14.2606
576.54;14.1857
576.91;14.3261
577.28;13.8267
577.66;13.9163
578.03;13.7221
578.4;13.7183
578.78;13.498
579.15;13.5133
579.52;13.3455
579.89;13.4068
580.27;13.4596
580.64;13.1469
581.01;12.9833
581.39;13.0985
581.76;13.1451
582.13;13.0876
582.5;13.0117
582.88;12.873
583.25;12.8371
583.62;12.9612
583.99;12.7039
584.36;12.738
584.74;12.6579
585.11;12.507
585.48;12.5643
585.85;12.5322
586.23;12.5263
586.6;12.2526
586.97;12.3345
587.34;12.1446
587.71;12.0741
588.09;12.2039
588.46;12.1235
588.83;12.1802
589.2;12.2203
589.57;12.1565
589.94;12.0201
590.32;11.959
590.69;11.9192
591.06;12.018
591.43;11.9144
591.8;11.7276
592.17;11.6843
592.55;11.9564
592.92;11.9352
593.29;11.824
593.66;11.6063
594.03;11.8007
594.4;11.6916
594.77;11.6263
595.14;11.7107
595.52;11.4443
595.89;11.5067
596.26;11.565
596.63;11.5435
597;11.5592
597.37;11.6425
597.74;11.4996
598.11;11.5369
598.48;11.7126
598.85;11.3702
599.23;11.482
599.6;11.3099
599.97;11.5475
600.34;11.2931
600.71;11.5763
601.08;11.4897
601.45;11.3422
601.82;11.2936
602.19;11.2384
602.56;11.7516
602.93;11.194
603.3;11.0617
603.67;11.2339
604.04;11.1115
604.41;11.0895
604.78;11.256
605.15;11.0301
605.52;11.1103
605.89;10.8838
606.26;11.117
606.63;10.8117
607;10.9838
607.37;10.8527
607.74;10.8708
608.11;10.7813
608.48;10.6594
608.85;10.7523
609.22;10.6067
609.59;10.6921
609.96;10.6779
610.33;10.5901
610.7;10.6145
611.07;10.308
611.44;10.492
611.81;10.4213
612.18;10.3383
612.55;10.2458
612.92;10.2972
613.28;10.3186
613.65;10.1582
614.02;10.0735
614.39;9.9535
614.76;9.9662
615.13;9.8504
615.5;10.1252
615.87;10.0139
616.24;10.142
616.61;9.8061
616.98;9.7527
617.34;9.7943
617.71;9.9029
618.08;9.616
618.45;9.6189
618.82;9.6393
619.19;9.5828
619.56;9.523
619.92;9.6287
620.29;9.6833
620.66;9.4796
621.03;9.6809
621.4;9.6285
621.77;9.6331
622.13;9.5053
622.5;9.3186
622.87;9.527
623.24;9.4741
623.61;9.3294
623.98;9.3688
624.34;9.3349
624.71;9.3835
625.08;9.5134
625.45;9.1383
625.82;9.4782
626.18;9.2526
626.55;9.4053
626.92;9.1886
627.29;9.3804
627.65;9.504
628.02;9.1272
628.39;9.1348
628.76;9.2659
629.12;9.3813
629.49;9.267
629.86;9.0847
630.23;9.2036
630.59;9.2336
630.96;9.2535
631.33;9.0871
631.7;9.1273
632.06;9.2336
632.43;9.5456
632.8;9.3825
633.16;9.378
633.53;9.492
633.9;9.0755
634.26;9.0458
634.63;9.2275
635;9.2914
635.37;9.1988
635.73;9.0766
636.1;8.9914
636.47;9.2701
636.83;9.1774
637.2;9.0779
637.57;9.0023
637.93;9.0543
638.3;9.1528
638.66;8.9934
639.03;8.9035
639.4;8.8405
639.76;8.9285
640.13;9.0193
640.5;8.9216
640.86;8.8208
641.23;8.7056
641.59;8.7757
641.96;8.5409
642.33;8.5079
642.69;8.5588
643.06;8.2511
643.42;8.2716
643.79;8.3503
644.16;8.27
644.52;8.4044
644.89;8.0985
645.25;8.2354
645.62;8.3057
645.98;8.1654
646.35;8.1506
646.71;7.8633
647.08;7.9912
647.45;8.0332
647.81;8.0054
648.18;7.838
648.54;7.9646
648.91;7.7947
649.27;7.7705
649.64;7.868
650;7.7607
650.37;7.6682
650.73;7.7792
651.1;7.7272
651.46;7.4775
651.83;7.6988
652.19;7.8645
652.56;7.8703
652.92;7.6481
653.29;7.5074
653.65;7.6582
654.02;7.5766
654.38;7.5007
654.74;7.6613
655.11;7.6367
655.47;7.7851
655.84;7.4984
656.2;7.4242
656.57;7.5172
656.93;7.8938
657.29;7.3151
657.66;7.3613
658.02;7.5553
658.39;7.4602
658.75;7.466
659.12;7.4727
659.48;7.351
659.84;7.4395
660.21;7.4897
660.57;7.4111
660.93;7.3045
661.3;7.4261
661.66;7.4682
662.03;7.2769
662.39;7.1309
662.75;7.2876
663.12;7.165
663.48;7.0546
663.84;7.1774
664.21;7.1059
664.57;7.2406
664.93;7.2924
665.3;7.0831
665.66;7.1134
666.02;6.9637
666.39;7.0298
666.75;6.849
667.11;6.9222
667.47;6.9913
667.84;7.1626
668.2;6.9651
668.56;7.1624
668.93;7.1071
669.29;7.0934
669.65;6.9292
670.01;6.8182
670.38;7.0348
670.74;6.9605
671.1;7.014
671.46;7.0226
671.83;6.8636
672.19;7.0513
672.55;7.1348
672.91;6.8865
673.28;7.0359
673.64;6.7945
674;7.0756
674.36;6.844
674.72;6.8872
675.09;7.0382
675.45;6.9819
675.81;7.0206
676.17;7.0018
676.53;7.0649
676.9;6.7883
677.26;6.884
677.62;6.8809
677.98;6.938
678.34;7.2443
678.7;7.0288
679.07;7.0191
679.43;7.0804
679.79;7.0127
680.15;7.2679
680.51;7.0658
680.87;7.01
681.23;6.9404
681.6;7.1732
681.96;7.3632
682.32;7.1902
682.68;7.2283
683.04;7.2294
683.4;7.3068
683.76;7.1453
684.12;7.3181
684.48;7.4329
684.84;7.3827
685.21;7.4295
685.57;7.4758
685.93;7.4807
686.29;7.4601
686.65;7.5892
687.01;7.6759
687.37;7.5096
687.73;7.7303
688.09;7.9145
688.45;7.7774
688.81;8.1508
689.17;7.9892
689.53;8.1573
689.89;8.2365
690.25;8.3413
690.61;8.7357
690.97;8.8245
691.33;9.0048
691.69;8.9994
692.05;9.5636
692.41;9.4505
692.77;9.5135
693.13;9.7907
693.49;10.1599
693.85;10.319
694.21;10.7216
694.57;11.2697
694.93;11.2414
695.29;11.8476
695.65;11.8612
696.01;12.2569
696.37;12.7111
696.73;13.1354
697.08;13.7743
697.44;13.772
697.8;14.4404
698.16;14.8855
698.52;15.5417
698.88;16.079
699.24;16.3987
699.6;17.2496
699.96;17.3359
700.32;17.5437
700.67;18.5221
701.03;19.0449
701.39;19.9979
701.75;20.2671
702.11;20.8308
702.47;21.191
702.83;21.7258
703.18;22.699
703.54;22.9316
703.9;23.7435
704.26;24.0608
704.62;24.9863
704.98;25.3427
705.33;26.2201
705.69;26.8261
706.05;26.7483
706.41;27.6912
706.77;28.3334
707.12;28.9711
707.48;29.6113
707.84;29.5157
708.2;30.5476
708.55;30.9615
708.91;31.5021
709.27;32.4071
709.63;32.9806
709.98;33.6365
710.34;34.3031
710.7;34.2101
711.06;35.0989
711.41;36.1275
711.77;36.817
712.13;37.4823
712.49;37.8799
712.84;38.1037
713.2;38.6776
713.56;39.9307
713.91;39.7084
714.27;40.7935
714.63;40.9798
714.99;42.6317
715.34;42.1862
715.7;42.8228
716.06;44.4154
716.41;44.8111
716.77;44.6517
717.13;44.935
717.48;46.2452
717.84;46.8475
718.19;48.19
718.55;46.7942
718.91;47.7097
719.26;49.4469
719.62;51.0118
719.98;48.844
720.33;50.3102
720.69;50.4481
721.04;51.4055
721.4;52.3694
721.76;51.6303
722.11;51.6885
722.47;53.619
722.82;52.807
723.18;54.0394
723.53;54.3575
723.89;55.4919
724.25;54.4352
724.6;54.1237
724.96;52.6006
725.31;55.1351
725.67;56.2755
726.02;53.2457
726.38;55.5882
726.73;55.8708
727.09;56.1342
727.44;56.4531
727.8;57.0608
728.15;56.4103
728.51;57.9275
728.86;55.8887
729.22;56.0066
729.57;59.9544
729.93;60.1428
730.28;54.5455
730.64;58.6984
730.99;57.6114
731.35;55.0932
731.7;59.3054
732.06;61.0458
732.41;63.1191
732.76;59.5918
733.12;65.8003
733.47;61.7668
733.83;62.824
734.18;57.3187
734.54;58.7821
734.89;61.5385
735.24;67.6882
735.6;61.8029
735.95;65.1102
736.31;64.5685
736.66;58.9822
737.01;66.7748
737.37;63.6879
737.72;60.3636
738.07;63.4798
738.43;64.9272
738.78;67.1362
739.13;65.3386
739.49;70.4507
739.84;66.1995
740.19;66.7015
740.55;71.2772
740.9;68.3095
741.25;65.8076
741.61;64.141
741.96;67.7711
742.31;67.1842
742.67;70.6052
743.02;67.8809
743.37;69.5297
743.72;72.3185
744.08;69.6718
744.43;70.3418
744.78;72.0447
745.14;71.105
745.49;72.1006
745.84;70.4951
746.19;72.0943
746.55;72.2502
746.9;69.6076
747.25;72.8038
747.6;75.1517
747.95;75.2035
748.31;71.5992
748.66;71.741
749.01;71.3083
749.36;73.1448
749.71;74.8571
750.07;72.5886
750.42;74.454
750.77;72.4666
751.12;74.5296
751.47;74.0998
751.83;72.4733
752.18;73.7731
752.53;74.7847
752.88;74.2849
753.23;74.5863
753.58;74.837
753.93;74.1591
754.29;74.5478
754.64;75.6721
754.99;74.6404
755.34;74.1341
755.69;74.4554
756.04;73.93
756.39;75.5298
756.74;74.3739
757.09;73.7414
757.44;75.0191
757.8;74.4579
758.15;74.9738
758.5;75.1845
758.85;75.5382
759.2;75.7353
759.55;73.2157
759.9;74.4303
760.25;75.2818
760.6;74.8681
760.95;74.9073
761.3;74.3636
761.65;76.6102
762;76.1399
762.35;75.5953
762.7;75.4554
763.05;74.4871
763.4;75.5791
763.75;75.7072
764.1;75.377
764.45;75.4629
764.8;75.2406
765.15;76.0606
765.5;77.2723
765.85;75.9653
766.2;76.2803
766.55;76.2235
766.9;75.5834
767.25;76.4085
767.59;77.1773
767.94;74.8786
768.29;77.0684
768.64;76.2517
768.99;78.2369
769.34;75.914
769.69;76.7527
770.04;76.5729
770.39;76.9914
770.74;76.4124
771.08;76.7382
771.43;76.5334
771.78;75.8984
772.13;76.336
772.48;76.8116
772.83;76.4016
773.18;76.9563
773.52;76.3328
773.87;75.6152
774.22;76.6423
774.57;76.9231
774.92;77.3468
775.27;77.6835
775.61;76.7194
775.96;77.4755
776.31;77.8502
776.66;78.171
777.01;76.7034
777.35;77.3963
777.7;77.98
778.05;78.189
778.4;77.6518
778.74;77.093
779.09;76.5007
779.44;76.9367
779.79;78.4609
780.13;76.5103
780.48;78.0859
780.83;77.8603
781.18;76.2684
781.52;77.1581
781.87;77.257
782.22;76.8352
782.56;78.6286
782.91;77.7095
783.26;78.2392
783.6;77.3352
783.95;76.5889
784.3;76.897
784.64;76.0154
784.99;78.6298
785.34;78.6515
785.68;77.4969
786.03;77.8387
786.38;77.5103
786.72;74.5849
787.07;75.8102
787.42;78.5955
787.76;80.0426
788.11;76.1945
788.45;78.5964
788.8;78.0449
789.15;77.4322
789.49;78.4225
789.84;77.4624
790.18;77.997
790.53;77.6967
790.87;75.126
791.22;76.7617
791.57;74.6197
791.91;77.4156
792.26;80.1147
792.6;77.1081
792.95;76.9183
793.29;78.1755
793.64;79.4734
793.98;78.4764
794.33;77.047
794.67;78.4321
795.02;76.7529
795.36;76.8693
795.71;76.0086
796.05;75.7386
796.4;79.8473
796.74;77.5076
797.09;75.5505
797.43;75.6469
797.78;76.0597
798.12;78.3984
798.47;77.8987
798.81;77.3769
799.15;73.4407
799.5;75.9863
799.84;77.7778
800.19;80.4348
800.53;77.0377
800.88;71.8723
801.22;79.7602
801.56;76.8209
801.91;72.0305
802.25;82.3899
802.59;80.9942
802.94;75.7732
803.28;75.5102
803.63;75.7694
803.97;77.6544
804.31;77.8832
804.66;79.6601
805;73.7582
805.34;76.5927
805.69;76.2897
806.03;77.6795
806.37;72.7414
806.72;79.7565
807.06;79.3158
807.4;81.5514
807.74;78.5032
808.09;76.0274
808.43;81.6316
808.77;77.1326
809.12;77.539
809.46;78.4715
809.8;82.5778
810.14;76.4423
810.49;74.5288
810.83;79.7741
811.17;79.5367
811.51;73.5494
811.86;71.7838
812.2;71.1991
812.54;76.8894
812.88;80.3787
813.22;78.1674
813.57;74.7792
813.91;73.4878
814.25;80.9305
814.59;78.0776
814.93;79.9432
815.28;76.7482
815.62;79.5077
815.96;77.0975
816.3;76.6821
816.64;78.0786
816.98;76.8245
817.32;78.392
817.67;76.3304
818.01;78.1788
818.35;78.5445
818.69;80.5252
819.03;75.0132
819.37;76.5381
819.71;75.3483
820.05;78.5637
820.39;77.6008
820.73;76.9716
821.08;75.6869
821.42;79.5005
821.76;81.0622
822.1;80.8943
822.44;78.1011
822.78;81.6025
823.12;76.0062
823.46;82.9474
823.8;76.9898
824.14;80.3942
824.48;80.484
824.82;79.0347
825.16;82.4375
825.5;78.0303
825.84;80.9674
826.18;75.308
826.52;75.8741
826.86;78.5128
827.2;82.6199
827.54;83.2704
827.88;81.0972
828.22;75.6614
828.56;80.2927
828.9;78.9417
829.24;79.6095
829.57;81.7664
829.91;76.5097
830.25;76.5111
830.59;78.2727
830.93;83.2881
831.27;80.8872
831.61;76.973
831.95;77.8015
832.29;75.9783
832.63;75.9358
832.96;78.9416
833.3;77.839
833.64;77.8498
833.98;76.261
834.32;79.8516
834.66;79.4576
835;79.9652
835.33;80.7113
835.67;73.9155
836.01;82.266
836.35;77.0019
836.69;73.6579
837.02;78.3044
837.36;80.6137
837.7;76.0028
838.04;78.2424
838.38;77.8642
838.71;81.1881
839.05;77.1513
839.39;79.9076
839.73;79.7438
840.06;79.9031
840.4;74.3191
840.74;81.1385
841.08;78.7381
841.41;79.9637
841.75;112.1185
842.09;83.3333
842.42;78.9428
842.76;75.8333
843.1;71.4286
843.43;75.1724
843.77;75.5802
844.11;76.078
844.44;72.0644
844.78;77.116
845.12;72.7177
845.45;73.8901
845.79;80.7955
846.13;84.7518
846.46;76.9415
846.8;72.5771
847.14;72.8774
847.47;82.1795
847.81;75.1302
848.14;81.6208
848.48;84.9057
848.82;81.6594
849.15;85.0789
849.49;75.2151
849.82;80.102
850.16;70.7668
850.49;71.7813
850.83;67.8832
851.17;65.5512
851.5;67.304
851.84;60.4027
852.17;87.1658
852.51;81.9629
852.84;72.9282
853.18;76.7584
853.51;67.8744
853.85;81.4241
854.18;71.0059
854.52;62.7451
854.85;78.2918
855.19;69.4915
855.52;55.2846
855.86;60.3774
856.19;89.2405
856.53;86.5385
856.86;74.6667
857.19;55.1724
857.53;42.2222
857.86;58.1967
858.2;85.3659
858.53;30.3571
858.87;64.6154
859.2;35.4167
859.53;82.6667
859.87;0
860.2;0
860.54;14.4068
860.87;64.6154
861.2;20
861.54;45.5696
861.87;56
862.2;0
862.54;0
862.87;148
863.2;103.7037
863.54;0
863.87;0
864.2;33.3333
864.54;63.4921
864.87;182.7586
865.2;49.3671
865.53;0
865.87;31.6456
866.2;0
866.53;0
866.87;0
867.2;0
867.53;30
867.86;0
868.2;36.3636
868.53;25.8065
868.86;76.9231
869.19;0
869.52;71.1864
869.86;0
870.19;172.2222
870.52;0
870.85;0
871.18;0
871.52;0
871.85;0
872.18;0
872.51;0
872.84;40
873.17;73.913
873.51;80.6452
873.84;0
874.17;0
874.5;37.5
874.83;0
875.16;150
875.49;0
875.82;0
876.15;0
876.49;8.1081
876.82;0
877.15;0
877.48;0
877.81;0
878.14;0
878.47;0
878.8;0
879.13;93.617
879.46;100
879.79;0
880.12;44
880.45;0
880.78;0
881.11;0
881.44;0
881.77;0
882.1;0
882.43;0
882.76;0
883.09;54.2373
883.42;77.2727
883.75;0
884.08;0
884.41;0
884.74;120
885.07;0
885.39;0
885.72;0
886.05;0
886.38;36.1345
886.71;0
887.04;88.4615
887.37;0
887.7;0
888.03;0
888.35;0
888.68;0
889.01;0
889.34;44.7368
889.67;0
890;0
890.32;0
890.65;36
890.98;0
891.31;0
891.64;0
891.96;146.6667
892.29;27.551
892.62;0
892.95;0
893.27;0
893.6;0
893.93;20.6349
894.26;0
894.58;22.5
894.91;34
895.24;0
895.57;39.4737
895.89;0
896.22;0
896.55;0
896.87;0
897.2;0
897.53;0
897.85;0
898.18;97.2973
898.51;0
898.83;0
899.16;0
899.49;33.3333
899.81;0
900.14;0
900.47;0
900.79;100
901.12;92.1053
901.44;5
901.77;0
902.1;0
902.42;0
902.75;50
903.07;0
903.4;14.7368
903.72;0
904.05;0
904.38;0
904.7;6.4103
905.03;0
905.35;0
905.68;0
906;8.6207
906.33;0
906.65;0
906.98;0
907.3;0
907.63;61.5385
907.95;0
908.28;0
908.6;0
908.92;0
909.25;0
909.57;65
909.9;0
910.22;64.8649
910.55;74.1935
910.87;88
911.19;0
911.52;0
911.84;246.6667
912.17;48.9796
912.49;90.2439
912.81;0
913.14;0
913.46;16.9231
913.78;0
914.11;0
914.43;0
914.75;0
915.08;0
915.4;0
915.72;0
916.05;0
916.37;0
916.69;190
917.02;0
917.34;0
917.66;0
917.98;0
918.31;0
918.63;144.4444
918.95;0
919.27;100
